ALV-5000/E-WIN Data
ALV-5000/EPP-WIN Data
Date :	"04.12.2007"
Time :	"17:07:34"
Samplename : 	""
SampMemo(0) : 	""
SampMemo(1) : 	""
SampMemo(2) : 	""
SampMemo(3) : 	""
SampMemo(4) : 	""
SampMemo(5) : 	""
SampMemo(6) : 	""
SampMemo(7) : 	""
SampMemo(8) : 	""
SampMemo(9) : 	""
Temperature [K] :	     298.16000
Viscosity [cp]  :	       0.89000
Refractive Index:	       1.33200
Wavelength [nm] :	     632.80000
Angle [°]       :	      15.00100
Duration [s]    :	        60
Runs            :	         1
Mode            :	"SINGLE AUTO CH0"
MeanCR0 [kHz]   :	     455.51379
MeanCR1 [kHz]   :	       0.00000

"Correlation"
  1.25000E-004	  6.95466E-001
  2.50000E-004	  8.17694E-001
  3.75000E-004	  8.18175E-001
  5.00000E-004	  8.18690E-001
  6.25000E-004	  8.18423E-001
  7.50000E-004	  8.17840E-001
  8.75000E-004	  8.16374E-001
  1.00000E-003	  8.19724E-001
  1.12500E-003	  8.19568E-001
  1.25000E-003	  8.18668E-001
  1.37500E-003	  8.19738E-001
  1.50000E-003	  8.18272E-001
  1.62500E-003	  8.17562E-001
  1.75000E-003	  8.18081E-001
  1.87500E-003	  8.16261E-001
  2.00000E-003	  8.16977E-001
  2.25000E-003	  8.16678E-001
  2.50000E-003	  8.17698E-001
  2.75000E-003	  8.17659E-001
  3.00000E-003	  8.18599E-001
  3.25000E-003	  8.18188E-001
  3.50000E-003	  8.19186E-001
  3.75000E-003	  8.19194E-001
  4.00000E-003	  8.18065E-001
  4.50000E-003	  8.17991E-001
  5.00000E-003	  8.17635E-001
  5.50000E-003	  8.18544E-001
  6.00000E-003	  8.17643E-001
  6.50000E-003	  8.18778E-001
  7.00000E-003	  8.18712E-001
  7.50000E-003	  8.18285E-001
  8.00000E-003	  8.17812E-001
  9.00000E-003	  8.18186E-001
  1.00000E-002	  8.18551E-001
  1.10000E-002	  8.17748E-001
  1.20000E-002	  8.17910E-001
  1.30000E-002	  8.17977E-001
  1.40000E-002	  8.17711E-001
  1.50000E-002	  8.17744E-001
  1.60000E-002	  8.17525E-001
  1.80000E-002	  8.17428E-001
  2.00000E-002	  8.17365E-001
  2.20000E-002	  8.17404E-001
  2.40000E-002	  8.17424E-001
  2.60000E-002	  8.17345E-001
  2.80000E-002	  8.17332E-001
  3.00000E-002	  8.17861E-001
  3.20000E-002	  8.17311E-001
  3.60000E-002	  8.17034E-001
  4.00000E-002	  8.16838E-001
  4.40000E-002	  8.16405E-001
  4.80000E-002	  8.16292E-001
  5.20000E-002	  8.16209E-001
  5.60000E-002	  8.15949E-001
  6.00000E-002	  8.15794E-001
  6.40000E-002	  8.15502E-001
  7.20000E-002	  8.14859E-001
  8.00000E-002	  8.14703E-001
  8.80000E-002	  8.14331E-001
  9.60000E-002	  8.13963E-001
  1.04000E-001	  8.13417E-001
  1.12000E-001	  8.12908E-001
  1.20000E-001	  8.12569E-001
  1.28000E-001	  8.12203E-001
  1.44000E-001	  8.11062E-001
  1.60000E-001	  8.10247E-001
  1.76000E-001	  8.09327E-001
  1.92000E-001	  8.08686E-001
  2.08000E-001	  8.07941E-001
  2.24000E-001	  8.07044E-001
  2.40000E-001	  8.06368E-001
  2.56000E-001	  8.05468E-001
  2.88000E-001	  8.03765E-001
  3.20000E-001	  8.02149E-001
  3.52000E-001	  8.00554E-001
  3.84000E-001	  7.98829E-001
  4.16000E-001	  7.97403E-001
  4.48000E-001	  7.95663E-001
  4.80000E-001	  7.94079E-001
  5.12000E-001	  7.92617E-001
  5.76000E-001	  7.89494E-001
  6.40000E-001	  7.86532E-001
  7.04000E-001	  7.83470E-001
  7.68000E-001	  7.80550E-001
  8.32000E-001	  7.77517E-001
  8.96000E-001	  7.74636E-001
  9.60000E-001	  7.71606E-001
  1.02400E+000	  7.68869E-001
  1.15200E+000	  7.62994E-001
  1.28000E+000	  7.57264E-001
  1.40800E+000	  7.51570E-001
  1.53600E+000	  7.45863E-001
  1.66400E+000	  7.40311E-001
  1.79200E+000	  7.34710E-001
  1.92000E+000	  7.29126E-001
  2.01600E+000	  7.25296E-001
  2.27200E+000	  7.14445E-001
  2.52800E+000	  7.03790E-001
  2.78400E+000	  6.93340E-001
  3.04000E+000	  6.83069E-001
  3.29600E+000	  6.72959E-001
  3.55200E+000	  6.62989E-001
  3.80800E+000	  6.53144E-001
  4.06400E+000	  6.43582E-001
  4.57600E+000	  6.24617E-001
  5.08800E+000	  6.06364E-001
  5.60000E+000	  5.88846E-001
  6.11200E+000	  5.71988E-001
  6.62400E+000	  5.55982E-001
  7.13600E+000	  5.40755E-001
  7.64800E+000	  5.26218E-001
  8.16000E+000	  5.12263E-001
  9.18400E+000	  4.85183E-001
  1.02080E+001	  4.59653E-001
  1.12320E+001	  4.35622E-001
  1.22560E+001	  4.12806E-001
  1.32800E+001	  3.91148E-001
  1.43040E+001	  3.70840E-001
  1.53280E+001	  3.51835E-001
  1.63520E+001	  3.34246E-001
  1.84000E+001	  3.01299E-001
  2.04480E+001	  2.73064E-001
  2.24960E+001	  2.49100E-001
  2.45440E+001	  2.28073E-001
  2.65920E+001	  2.10739E-001
  2.86400E+001	  1.96817E-001
  3.06880E+001	  1.83658E-001
  3.27360E+001	  1.71051E-001
  3.68320E+001	  1.47484E-001
  4.09280E+001	  1.26768E-001
  4.50240E+001	  1.11194E-001
  4.91200E+001	  9.97070E-002
  5.32160E+001	  8.78303E-002
  5.73120E+001	  7.55738E-002
  6.14080E+001	  6.55240E-002
  6.55040E+001	  5.75374E-002
  7.36960E+001	  4.29772E-002
  8.18880E+001	  3.16648E-002
  9.00800E+001	  2.43596E-002
  9.82720E+001	  2.40080E-002
  1.06464E+002	  2.48502E-002
  1.14656E+002	  2.76717E-002
  1.22848E+002	  2.63397E-002
  1.31040E+002	  2.17596E-002
  1.47424E+002	  1.22775E-002
  1.63808E+002	  1.48390E-003
  1.80192E+002	 -2.08971E-003
  1.96576E+002	 -9.21494E-003
  2.12960E+002	 -8.42300E-003
  2.29344E+002	 -3.56566E-003
  2.45728E+002	  8.86854E-003
  2.62112E+002	  1.07181E-002
  2.94880E+002	  1.62230E-002
  3.27648E+002	  5.37625E-003
  3.60416E+002	  4.25141E-003
  3.93184E+002	 -1.30510E-002
  4.25952E+002	 -1.73608E-002
  4.58720E+002	  4.28531E-004
  4.91488E+002	  1.54589E-002
  5.24256E+002	  1.58340E-002
  5.89792E+002	  8.33413E-003
  6.55328E+002	  6.43103E-003
  7.20864E+002	 -6.46044E-003
  7.86400E+002	  3.38573E-003
  8.51936E+002	  1.30236E-003
  9.17472E+002	 -4.46177E-003
  9.83008E+002	 -2.55538E-002
  1.04854E+003	 -1.65701E-002
  1.17962E+003	 -9.71786E-003
  1.31069E+003	  7.32983E-003
  1.44176E+003	 -3.97868E-003
  1.57283E+003	  4.18407E-003
  1.70390E+003	 -6.61614E-005
  1.83498E+003	 -7.13618E-003
  1.96605E+003	 -1.29595E-002
  2.09712E+003	  1.04810E-002
  2.35926E+003	  1.17630E-002
  2.62141E+003	  1.30296E-002
  2.88355E+003	 -6.16745E-003
  3.14570E+003	 -5.97894E-004
  3.40784E+003	  4.11222E-003
  3.66998E+003	 -1.65668E-003
  3.93213E+003	 -3.37771E-003
  4.19427E+003	  4.28522E-003
  4.71856E+003	  5.97040E-003
  5.24285E+003	 -3.90667E-003
  5.76714E+003	 -5.99135E-003
  6.29142E+003	 -1.05291E-002
  6.81571E+003	 -1.68934E-003
  7.34000E+003	  6.12554E-003
  7.86429E+003	 -9.28589E-003
  8.38858E+003	 -1.63415E-002
  9.43715E+003	  1.07730E-002
  1.04857E+004	 -1.02382E-002
  1.15343E+004	  3.09077E-003
  1.25829E+004	 -1.00816E-002
  1.36315E+004	 -2.71986E-003
  1.46800E+004	  1.13498E-002
  1.57286E+004	 -7.15058E-003

"Count Rate"
       0.23438	     265.05722
       0.46875	     729.63202
       0.70313	     705.37488
       0.93750	     758.98657
       1.17188	     499.84207
       1.40625	     485.05380
       1.64063	     299.75241
       1.87500	     391.73499
       2.10938	     487.45306
       2.34375	     411.50958
       2.57813	     522.33606
       2.81250	     681.33966
       3.04688	     302.04065
       3.28125	     323.94553
       3.51563	     381.39944
       3.75000	     417.17471
       3.98438	     516.80328
       4.21875	     443.04562
       4.45313	     401.72049
       4.68750	     411.65472
       4.92188	     510.66003
       5.15625	     326.81012
       5.39063	     320.86749
       5.62500	     367.87485
       5.85938	     419.33063
       6.09375	     585.60883
       6.32813	     365.00171
       6.56250	     533.90112
       6.79688	     439.36136
       7.03125	     782.54785
       7.26563	     262.20972
       7.50000	     222.70749
       7.73438	     233.74745
       7.96875	     360.50208
       8.20313	     379.21793
       8.43750	     676.57532
       8.67188	     225.18785
       8.90625	     407.06116
       9.14063	     335.36118
       9.37500	     338.56729
       9.60938	     530.15710
       9.84375	     511.76999
      10.07813	     493.72867
      10.31250	     728.30005
      10.54688	     489.19058
      10.78125	     355.56696
      11.01563	     314.51077
      11.25000	     235.83078
      11.48438	     390.63782
      11.71875	     357.83813
      11.95313	     529.15387
      12.18750	     529.29047
      12.42188	     382.97473
      12.65625	     403.20187
      12.89063	     683.76453
      13.12500	     549.05652
      13.35938	     527.12604
      13.59375	     493.42557
      13.82813	     399.47491
      14.06250	     542.50342
      14.29688	     269.63373
      14.53125	     354.39294
      14.76563	     608.30774
      15.00000	     683.29492
      15.23438	     736.09552
      15.46875	     417.80655
      15.70313	     544.26233
      15.93750	     395.05209
      16.17188	     448.90286
      16.40625	     578.73553
      16.64063	     417.93460
      16.87500	     275.10675
      17.10938	     431.98004
      17.34375	     875.76422
      17.57813	     308.29492
      17.81250	     981.43359
      18.04688	     669.21112
      18.28125	     350.01709
      18.51563	     539.83521
      18.75000	     391.44894
      18.98438	     324.98294
      19.21875	     670.00513
      19.45313	     709.88306
      19.68750	     415.33899
      19.92188	     402.77496
      20.15625	     790.91534
      20.39063	     360.80518
      20.62500	     301.06729
      20.85938	     304.87109
      21.09375	     442.29852
      21.32813	     594.41602
      21.56250	     649.17181
      21.79688	     515.30060
      22.03125	     290.30911
      22.26563	     195.75650
      22.50000	     546.92200
      22.73438	     436.88525
      22.96875	     282.49234
      23.20313	     254.38440
      23.43750	     329.46552
      23.67188	     377.67249
      23.90625	     335.80945
      24.14063	     387.14996
      24.37500	     480.91275
      24.60938	     477.36511
      24.84375	     280.74197
      25.07813	     471.10229
      25.31250	     401.31064
      25.54688	     213.05072
      25.78125	     226.07584
      26.01563	     521.90063
      26.25000	     657.11664
      26.48438	     330.94263
      26.71875	     318.41275
      26.95313	     469.28366
      27.18750	     634.65680
      27.42188	     455.66516
      27.65625	     455.28946
      27.89063	     332.38559
      28.12500	     392.64432
      28.35938	     339.30585
      28.59375	     812.92694
      28.82813	     674.87622
      29.06250	     278.27444
      29.29688	     278.30005
      29.53125	     419.56116
      29.76563	     198.25394
      30.00000	     271.35846
      30.23438	     504.67471
      30.46875	     456.12195
      30.70313	     263.15747
      30.93750	     516.46179
      31.17188	     535.23309
      31.40625	     758.11139
      31.64063	     401.65643
      31.87500	     994.58679
      32.10938	     290.74881
      32.34375	     695.17163
      32.57813	     417.45648
      32.81250	     330.83591
      33.04688	     239.70288
      33.28125	     208.37604
      33.51563	     376.79733
      33.75000	     399.65421
      33.98438	     399.29135
      34.21875	     505.71213
      34.45313	     843.35303
      34.68750	     417.91754
      34.92188	     446.91345
      35.15625	     266.25684
      35.39063	     224.49625
      35.62500	     375.13663
      35.85938	     855.77191
      36.09375	     383.95236
      36.32813	     703.87640
      36.56250	     693.35730
      36.79688	     337.09445
      37.03125	     339.19913
      37.26563	     618.27191
      37.50000	     573.80896
      37.73438	     219.37331
      37.96875	     397.02017
      38.20313	     297.06287
      38.43750	     849.79083
      38.67188	     658.71332
      38.90625	     373.17282
      39.14063	     369.11288
      39.37500	     366.98260
      39.60938	     401.60095
      39.84375	     485.85641
      40.07813	     476.76318
      40.31250	     266.19708
      40.54688	     426.29358
      40.78125	     503.78674
      41.01563	     693.33167
      41.25000	     334.59274
      41.48438	     522.51538
      41.71875	     530.87433
      41.95313	     523.13440
      42.18750	     535.07941
      42.42188	     376.10571
      42.65625	     458.94812
      42.89063	     615.35181
      43.12500	     556.06219
      43.35938	     475.94775
      43.59375	     425.28177
      43.82813	     539.19916
      44.06250	     461.79135
      44.29688	     509.43906
      44.53125	     378.74405
      44.76563	     693.60059
      45.00000	     237.61955
      45.23438	     685.93750
      45.46875	     858.00464
      45.70313	     489.07104
      45.93750	     888.98572
      46.17188	     641.96552
      46.40625	     583.71332
      46.64063	     808.17542
      46.87500	     467.69983
      47.10938	     341.71365
      47.34375	     169.40746
      47.57813	     520.36377
      47.81250	     363.30688
      48.04688	     520.50464
      48.28125	     397.62637
      48.51563	     382.38559
      48.75000	     473.05331
      48.98438	     353.84222
      49.21875	     465.57379
      49.45313	     388.83624
      49.68750	     184.45186
      49.92188	     482.15509
      50.15625	     498.72354
      50.39063	     322.02872
      50.62500	     358.84137
      50.85938	     630.47729
      51.09375	     650.78125
      51.32813	     322.74591
      51.56250	     680.16138
      51.79688	     430.06320
      52.03125	     207.37279
      52.26563	     520.17590
      52.50000	     236.58215
      52.73438	     493.22064
      52.96875	     389.49796
      53.20313	     390.35181
      53.43750	     457.23193
      53.67188	     814.43396
      53.90625	     452.02359
      54.14063	     529.94794
      54.37500	     330.16565
      54.60938	     370.98276
      54.84375	     236.62483
      55.07813	     394.08728
      55.31250	     239.25035
      55.54688	     595.00513
      55.78125	     268.60059
      56.01563	     327.67676
      56.25000	     318.13098
      56.48438	     417.27289
      56.71875	     502.52734
      56.95313	     364.12656
      57.18750	     366.06900
      57.42188	     242.40950
      57.65625	     769.85999
      57.89063	     598.57843
      58.12500	     546.41394
      58.35938	     211.86391
      58.59375	     487.33353
      58.82813	     321.63168
      59.06250	     258.25650
      59.29688	     472.04150
      59.53125	     252.42488
      59.76563	     409.40491

Monitor Diode	 162896.31

"Cumulant 1.Order"
FluctuationFreq. [1/ms]	 2.4761E-002
DiffCoefficient [µm²/s]	 2.0769E+000
Hydrodyn. Radius [nm]	 1.1809E+002

"Cumulant 2.Order"
FluctuationFreq. [1/ms]	 3.0283E-002
DiffCoefficient [µm²/s]	 2.5401E+000
Hydrodyn. Radius [nm]	 9.6558E+001
Expansion Parameter µ2	 3.5781E-004

"Cumulant 3.Order"
FluctuationFreq. [1/ms]	 3.0705E-002
DiffCoefficient [µm²/s]	 2.5755E+000
Hydrodyn. Radius [nm]	 9.5230E+001
Expansion Parameter µ2	 4.2901E-004
Expansion Parameter µ3	 3.5444E-006

"StandardDeviation"
  1.25000E-004	  2.77443E-002
  2.50000E-004	  2.77445E-002
  3.75000E-004	  2.77446E-002
  5.00000E-004	  2.77448E-002
  6.25000E-004	  2.77449E-002
  7.50000E-004	  2.77451E-002
  8.75000E-004	  2.77452E-002
  1.00000E-003	  2.77454E-002
  1.12500E-003	  2.77450E-002
  1.25000E-003	  2.77450E-002
  1.37500E-003	  2.77449E-002
  1.50000E-003	  2.77449E-002
  1.62500E-003	  2.77448E-002
  1.75000E-003	  2.77447E-002
  1.87500E-003	  2.77448E-002
  2.00000E-003	  2.77341E-002
  2.25000E-003	  2.77342E-002
  2.50000E-003	  2.77341E-002
  2.75000E-003	  2.77341E-002
  3.00000E-003	  2.77341E-002
  3.25000E-003	  2.77341E-002
  3.50000E-003	  2.77340E-002
  3.75000E-003	  2.77340E-002
  4.00000E-003	  2.77288E-002
  4.50000E-003	  2.77287E-002
  5.00000E-003	  2.77287E-002
  5.50000E-003	  2.77286E-002
  6.00000E-003	  2.77287E-002
  6.50000E-003	  2.77286E-002
  7.00000E-003	  2.77286E-002
  7.50000E-003	  2.77287E-002
  8.00000E-003	  2.77261E-002
  9.00000E-003	  2.77258E-002
  1.00000E-002	  2.77258E-002
  1.10000E-002	  2.77259E-002
  1.20000E-002	  2.77259E-002
  1.30000E-002	  2.77259E-002
  1.40000E-002	  2.77259E-002
  1.50000E-002	  2.77259E-002
  1.60000E-002	  2.77244E-002
  1.80000E-002	  2.77239E-002
  2.00000E-002	  2.77239E-002
  2.20000E-002	  2.77239E-002
  2.40000E-002	  2.77239E-002
  2.60000E-002	  2.77240E-002
  2.80000E-002	  2.77240E-002
  3.00000E-002	  2.77239E-002
  3.20000E-002	  2.77230E-002
  3.60000E-002	  2.77221E-002
  4.00000E-002	  2.77221E-002
  4.40000E-002	  2.77222E-002
  4.80000E-002	  2.77222E-002
  5.20000E-002	  2.77222E-002
  5.60000E-002	  2.77223E-002
  6.00000E-002	  2.77223E-002
  6.40000E-002	  2.77214E-002
  7.20000E-002	  2.77196E-002
  8.00000E-002	  2.77196E-002
  8.80000E-002	  2.77196E-002
  9.60000E-002	  2.77196E-002
  1.04000E-001	  2.77197E-002
  1.12000E-001	  2.77197E-002
  1.20000E-001	  2.77198E-002
  1.28000E-001	  2.77183E-002
  1.44000E-001	  2.77146E-002
  1.60000E-001	  2.77146E-002
  1.76000E-001	  2.77146E-002
  1.92000E-001	  2.77146E-002
  2.08000E-001	  2.77145E-002
  2.24000E-001	  2.77145E-002
  2.40000E-001	  2.77144E-002
  2.56000E-001	  2.77118E-002
  2.88000E-001	  2.77039E-002
  3.20000E-001	  2.77039E-002
  3.52000E-001	  2.77039E-002
  3.84000E-001	  2.77038E-002
  4.16000E-001	  2.77034E-002
  4.48000E-001	  2.77032E-002
  4.80000E-001	  2.77028E-002
  5.12000E-001	  2.76974E-002
  5.76000E-001	  2.76824E-002
  6.40000E-001	  2.76818E-002
  7.04000E-001	  2.76812E-002
  7.68000E-001	  2.76797E-002
  8.32000E-001	  2.76788E-002
  8.96000E-001	  2.76774E-002
  9.60000E-001	  2.76759E-002
  1.02400E+000	  2.76810E-002
  1.15200E+000	  2.76507E-002
  1.28000E+000	  2.76490E-002
  1.40800E+000	  2.76466E-002
  1.53600E+000	  2.76434E-002
  1.66400E+000	  2.76401E-002
  1.79200E+000	  2.76364E-002
  1.92000E+000	  2.76236E-002
  2.01600E+000	  2.75578E-002
  2.27200E+000	  2.75062E-002
  2.52800E+000	  2.74979E-002
  2.78400E+000	  2.74889E-002
  3.04000E+000	  2.74769E-002
  3.29600E+000	  2.74651E-002
  3.55200E+000	  2.74520E-002
  3.80800E+000	  2.74574E-002
  4.06400E+000	  2.74540E-002
  4.57600E+000	  2.73263E-002
  5.08800E+000	  2.72869E-002
  5.60000E+000	  2.72420E-002
  6.11200E+000	  2.71945E-002
  6.62400E+000	  2.71403E-002
  7.13600E+000	  2.70819E-002
  7.64800E+000	  2.70183E-002
  8.16000E+000	  2.69025E-002
  9.18400E+000	  2.66520E-002
  1.02080E+001	  2.65118E-002
  1.12320E+001	  2.63659E-002
  1.22560E+001	  2.62091E-002
  1.32800E+001	  2.60573E-002
  1.43040E+001	  2.58874E-002
  1.53280E+001	  2.57163E-002
  1.63520E+001	  2.55434E-002
  1.84000E+001	  2.50864E-002
  2.04480E+001	  2.47125E-002
  2.24960E+001	  2.43345E-002
  2.45440E+001	  2.39480E-002
  2.65920E+001	  2.35848E-002
  2.86400E+001	  2.32091E-002
  3.06880E+001	  2.28355E-002
  3.27360E+001	  2.24547E-002
  3.68320E+001	  2.17060E-002
  4.09280E+001	  2.10782E-002
  4.50240E+001	  2.05334E-002
  4.91200E+001	  2.00806E-002
  5.32160E+001	  1.96418E-002
  5.73120E+001	  1.92218E-002
  6.14080E+001	  1.88137E-002
  6.55040E+001	  1.83203E-002
  7.36960E+001	  1.74722E-002
  8.18880E+001	  1.67211E-002
  9.00800E+001	  1.43686E-002
  9.82720E+001	  1.43686E-002
  1.06464E+002	  1.43686E-002
  1.14656E+002	  1.43686E-002
  1.22848E+002	  1.43686E-002
  1.31040E+002	  1.37199E-002
  1.47424E+002	  1.37199E-002
  1.63808E+002	  1.37199E-002
  1.80192E+002	  1.37199E-002
  1.96576E+002	  1.37199E-002
  2.12960E+002	  1.37199E-002
  2.29344E+002	  1.37199E-002
  2.45728E+002	  1.37199E-002
  2.62112E+002	  1.32262E-002
  2.94880E+002	  1.32262E-002
  3.27648E+002	  1.32262E-002
  3.60416E+002	  1.32262E-002
  3.93184E+002	  1.32262E-002
  4.25952E+002	  1.32262E-002
  4.58720E+002	  1.32262E-002
  4.91488E+002	  1.32262E-002
  5.24256E+002	  1.19955E-002
  5.89792E+002	  1.19955E-002
  6.55328E+002	  1.19955E-002
  7.20864E+002	  1.19955E-002
  7.86400E+002	  1.19955E-002
  8.51936E+002	  1.19955E-002
  9.17472E+002	  1.19955E-002
  9.83008E+002	  1.19955E-002
  1.04854E+003	  1.01890E-002
  1.17962E+003	  1.01890E-002
  1.31069E+003	  1.01890E-002
  1.44176E+003	  1.01890E-002
  1.57283E+003	  1.01890E-002
  1.70390E+003	  1.01890E-002
  1.83498E+003	  1.01890E-002
  1.96605E+003	  1.01890E-002
  2.09712E+003	  8.20546E-003
  2.35926E+003	  8.20546E-003
  2.62141E+003	  8.20546E-003
  2.88355E+003	  8.20546E-003
  3.14570E+003	  8.20546E-003
  3.40784E+003	  8.20546E-003
  3.66998E+003	  8.20546E-003
  3.93213E+003	  8.20546E-003
  4.19427E+003	  6.16911E-003
  4.71856E+003	  6.16911E-003
  5.24285E+003	  6.16911E-003
  5.76714E+003	  6.16911E-003
  6.29142E+003	  6.16911E-003
  6.81571E+003	  6.16911E-003
  7.34000E+003	  6.16911E-003
  7.86429E+003	  6.16911E-003
  8.38858E+003	  4.49526E-003
  9.43715E+003	  4.49526E-003
  1.04857E+004	  4.49526E-003
  1.15343E+004	  4.49526E-003
  1.25829E+004	  4.49526E-003
  1.36315E+004	  4.49526E-003
  1.46800E+004	  4.49526E-003
  1.57286E+004	  4.49526E-003
