ALV-5000/E-WIN Data
Date :	"14-11-18"
Time :	"13:08:06"
Samplename : 	"loaded 20mW VV 5 ul do 300"
Temperature [K] :	     293.00000
Viscosity [cp]  :	       1.01016
Refractive Index:	       1.33200
Wavelength [nm] :	     532.00000
Angle [°]       :	     130.00000
Duration [s]    :	        60
Runs            :	         4
Mode            :	"SINGLE CROSS CH0"
MeanCR0 [kHz]   :	     116.62865
MeanCR1 [kHz]   :	     100.08969

"Correlation (Multi)"
"Lag [ms]"	"Average"	"Run  1"	"Run  2"	"Run  3"	"Run  4"	
  2.00000E-004	  7.95186E-001	  7.99464E-001	  8.00776E-001	  7.88951E-001	  7.91554E-001	
  4.00000E-004	  7.93180E-001	  7.95916E-001	  7.93155E-001	  7.92660E-001	  7.90990E-001	
  6.00000E-004	  7.91199E-001	  7.91934E-001	  7.90560E-001	  7.92476E-001	  7.89826E-001	
  8.00000E-004	  7.91951E-001	  7.97106E-001	  7.92054E-001	  7.87874E-001	  7.90769E-001	
  1.00000E-003	  7.92502E-001	  7.94926E-001	  7.93734E-001	  7.89531E-001	  7.91818E-001	
  1.20000E-003	  7.90371E-001	  7.97377E-001	  7.92018E-001	  7.85156E-001	  7.86934E-001	
  1.40000E-003	  7.88323E-001	  7.88415E-001	  7.91182E-001	  7.87527E-001	  7.86170E-001	
  1.60000E-003	  7.88749E-001	  7.84938E-001	  7.90760E-001	  7.96519E-001	  7.82777E-001	
  1.80000E-003	  7.87619E-001	  7.89854E-001	  7.88758E-001	  7.86345E-001	  7.85520E-001	
  2.00000E-003	  7.88011E-001	  7.94071E-001	  7.87171E-001	  7.88009E-001	  7.82792E-001	
  2.20000E-003	  7.87467E-001	  7.94149E-001	  7.86778E-001	  7.85276E-001	  7.83663E-001	
  2.40000E-003	  7.85013E-001	  7.84810E-001	  7.86334E-001	  7.80787E-001	  7.88119E-001	
  2.60000E-003	  7.83967E-001	  7.85124E-001	  7.85705E-001	  7.83053E-001	  7.81985E-001	
  2.80000E-003	  7.82964E-001	  7.85052E-001	  7.80965E-001	  7.82996E-001	  7.82842E-001	
  3.00000E-003	  7.79745E-001	  7.83699E-001	  7.85491E-001	  7.74805E-001	  7.74986E-001	
  3.20000E-003	  7.80299E-001	  7.86857E-001	  7.82507E-001	  7.78497E-001	  7.73336E-001	
  3.60000E-003	  7.77556E-001	  7.84645E-001	  7.79293E-001	  7.74692E-001	  7.71593E-001	
  4.00000E-003	  7.76645E-001	  7.77180E-001	  7.77263E-001	  7.73722E-001	  7.78417E-001	
  4.40000E-003	  7.74364E-001	  7.79092E-001	  7.76269E-001	  7.72922E-001	  7.69172E-001	
  4.80000E-003	  7.74143E-001	  7.79548E-001	  7.74027E-001	  7.72079E-001	  7.70915E-001	
  5.20000E-003	  7.72074E-001	  7.78426E-001	  7.68637E-001	  7.70483E-001	  7.70751E-001	
  5.60000E-003	  7.68632E-001	  7.71531E-001	  7.68104E-001	  7.66110E-001	  7.68783E-001	
  6.00000E-003	  7.67163E-001	  7.71043E-001	  7.67997E-001	  7.63778E-001	  7.65834E-001	
  6.40000E-003	  7.65284E-001	  7.67858E-001	  7.68039E-001	  7.61810E-001	  7.63430E-001	
  7.20000E-003	  7.62737E-001	  7.64134E-001	  7.65603E-001	  7.59266E-001	  7.61946E-001	
  8.00000E-003	  7.57119E-001	  7.57609E-001	  7.60337E-001	  7.55392E-001	  7.55139E-001	
  8.80000E-003	  7.53440E-001	  7.53883E-001	  7.54382E-001	  7.54785E-001	  7.50711E-001	
  9.60000E-003	  7.51124E-001	  7.52173E-001	  7.51910E-001	  7.50140E-001	  7.50274E-001	
  1.04000E-002	  7.46234E-001	  7.50951E-001	  7.46935E-001	  7.43326E-001	  7.43725E-001	
  1.12000E-002	  7.42241E-001	  7.44027E-001	  7.42926E-001	  7.40104E-001	  7.41906E-001	
  1.20000E-002	  7.39590E-001	  7.40435E-001	  7.41723E-001	  7.38617E-001	  7.37584E-001	
  1.28000E-002	  7.35590E-001	  7.37485E-001	  7.37366E-001	  7.34136E-001	  7.33373E-001	
  1.44000E-002	  7.27405E-001	  7.28701E-001	  7.29370E-001	  7.25023E-001	  7.26528E-001	
  1.60000E-002	  7.21889E-001	  7.24602E-001	  7.24141E-001	  7.18867E-001	  7.19948E-001	
  1.76000E-002	  7.13727E-001	  7.16281E-001	  7.14754E-001	  7.11904E-001	  7.11970E-001	
  1.92000E-002	  7.07536E-001	  7.09835E-001	  7.08397E-001	  7.06338E-001	  7.05575E-001	
  2.08000E-002	  7.00628E-001	  7.02062E-001	  7.03587E-001	  6.98460E-001	  6.98402E-001	
  2.24000E-002	  6.93532E-001	  6.94438E-001	  6.96923E-001	  6.91448E-001	  6.91319E-001	
  2.40000E-002	  6.87055E-001	  6.87012E-001	  6.89724E-001	  6.86599E-001	  6.84883E-001	
  2.56000E-002	  6.80774E-001	  6.82013E-001	  6.83042E-001	  6.79711E-001	  6.78330E-001	
  2.88000E-002	  6.67013E-001	  6.67054E-001	  6.70983E-001	  6.65953E-001	  6.64062E-001	
  3.20000E-002	  6.55124E-001	  6.57007E-001	  6.57879E-001	  6.53000E-001	  6.52613E-001	
  3.52000E-002	  6.43408E-001	  6.44597E-001	  6.46663E-001	  6.41551E-001	  6.40821E-001	
  3.84000E-002	  6.30294E-001	  6.31349E-001	  6.33048E-001	  6.27717E-001	  6.29062E-001	
  4.16000E-002	  6.17602E-001	  6.18055E-001	  6.19354E-001	  6.17597E-001	  6.15400E-001	
  4.48000E-002	  6.07048E-001	  6.07626E-001	  6.09671E-001	  6.05855E-001	  6.05039E-001	
  4.80000E-002	  5.96873E-001	  5.97467E-001	  5.99290E-001	  5.94694E-001	  5.96043E-001	
  5.12000E-002	  5.85377E-001	  5.85882E-001	  5.87914E-001	  5.83842E-001	  5.83870E-001	
  5.76000E-002	  5.63453E-001	  5.63672E-001	  5.65728E-001	  5.62580E-001	  5.61833E-001	
  6.40000E-002	  5.44230E-001	  5.44111E-001	  5.46776E-001	  5.43223E-001	  5.42810E-001	
  7.04000E-002	  5.24764E-001	  5.23421E-001	  5.28022E-001	  5.24479E-001	  5.23133E-001	
  7.68000E-002	  5.06241E-001	  5.04938E-001	  5.09765E-001	  5.05423E-001	  5.04836E-001	
  8.32000E-002	  4.87895E-001	  4.87253E-001	  4.90332E-001	  4.87420E-001	  4.86574E-001	
  8.96000E-002	  4.71867E-001	  4.71390E-001	  4.74586E-001	  4.71116E-001	  4.70375E-001	
  9.60000E-002	  4.55867E-001	  4.53944E-001	  4.59210E-001	  4.55156E-001	  4.55157E-001	
  1.02400E-001	  4.40667E-001	  4.39762E-001	  4.43225E-001	  4.39728E-001	  4.39953E-001	
  1.15200E-001	  4.11245E-001	  4.09547E-001	  4.14121E-001	  4.11397E-001	  4.09914E-001	
  1.28000E-001	  3.84644E-001	  3.83215E-001	  3.87810E-001	  3.83780E-001	  3.83769E-001	
  1.40800E-001	  3.60298E-001	  3.58930E-001	  3.63498E-001	  3.58998E-001	  3.59766E-001	
  1.53600E-001	  3.37579E-001	  3.36724E-001	  3.41100E-001	  3.36428E-001	  3.36064E-001	
  1.66400E-001	  3.17037E-001	  3.15911E-001	  3.19977E-001	  3.15924E-001	  3.16337E-001	
  1.79200E-001	  2.97381E-001	  2.96091E-001	  3.00676E-001	  2.96419E-001	  2.96336E-001	
  1.92000E-001	  2.79329E-001	  2.78282E-001	  2.82329E-001	  2.78042E-001	  2.78664E-001	
  2.04800E-001	  2.63224E-001	  2.62120E-001	  2.66403E-001	  2.62190E-001	  2.62181E-001	
  2.30400E-001	  2.33383E-001	  2.31876E-001	  2.36903E-001	  2.32185E-001	  2.32566E-001	
  2.56000E-001	  2.07653E-001	  2.06439E-001	  2.09919E-001	  2.07446E-001	  2.06807E-001	
  2.81600E-001	  1.85405E-001	  1.83321E-001	  1.87868E-001	  1.85185E-001	  1.85247E-001	
  3.07200E-001	  1.65885E-001	  1.63699E-001	  1.67674E-001	  1.65577E-001	  1.66590E-001	
  3.32800E-001	  1.48813E-001	  1.47216E-001	  1.50778E-001	  1.47981E-001	  1.49278E-001	
  3.58400E-001	  1.33861E-001	  1.32692E-001	  1.35677E-001	  1.32671E-001	  1.34404E-001	
  3.84000E-001	  1.20796E-001	  1.20205E-001	  1.22678E-001	  1.19412E-001	  1.20889E-001	
  4.09600E-001	  1.09603E-001	  1.08949E-001	  1.11066E-001	  1.08866E-001	  1.09530E-001	
  4.60800E-001	  8.98428E-002	  8.88269E-002	  9.12069E-002	  8.93546E-002	  8.99830E-002	
  5.12000E-001	  7.43349E-002	  7.31927E-002	  7.58817E-002	  7.43511E-002	  7.39142E-002	
  5.63200E-001	  6.25618E-002	  6.19873E-002	  6.39297E-002	  6.26716E-002	  6.16585E-002	
  6.14400E-001	  5.29153E-002	  5.26882E-002	  5.33706E-002	  5.25290E-002	  5.30735E-002	
  6.65600E-001	  4.49121E-002	  4.47803E-002	  4.46550E-002	  4.45936E-002	  4.56194E-002	
  7.16800E-001	  3.78360E-002	  3.81625E-002	  3.71536E-002	  3.76495E-002	  3.83783E-002	
  7.68000E-001	  3.26135E-002	  3.26377E-002	  3.20092E-002	  3.29004E-002	  3.29069E-002	
  8.19200E-001	  2.81987E-002	  2.81269E-002	  2.72769E-002	  2.91555E-002	  2.82356E-002	
  9.21600E-001	  2.12723E-002	  2.10079E-002	  1.98939E-002	  2.28856E-002	  2.13018E-002	
  1.02400E+000	  1.62451E-002	  1.57932E-002	  1.47879E-002	  1.77416E-002	  1.66578E-002	
  1.12640E+000	  1.19624E-002	  1.15016E-002	  1.08163E-002	  1.30239E-002	  1.25078E-002	
  1.22880E+000	  9.18362E-003	  8.93906E-003	  8.87484E-003	  9.81094E-003	  9.10962E-003	
  1.33120E+000	  7.43692E-003	  7.38951E-003	  7.34915E-003	  8.12677E-003	  6.88223E-003	
  1.43360E+000	  6.26229E-003	  6.75198E-003	  5.25270E-003	  7.12585E-003	  5.91863E-003	
  1.53600E+000	  5.51290E-003	  6.23254E-003	  4.42472E-003	  6.26368E-003	  5.13067E-003	
  1.63840E+000	  4.85738E-003	  5.56522E-003	  4.69607E-003	  4.49118E-003	  4.67706E-003	
  1.84320E+000	  3.61770E-003	  4.53228E-003	  4.05722E-003	  1.75767E-003	  4.12364E-003	
  2.04800E+000	  2.42616E-003	  3.10157E-003	  1.83719E-003	  1.74513E-003	  3.02076E-003	
  2.25280E+000	  1.26645E-003	  1.07935E-003	 -4.03280E-004	  3.14188E-003	  1.24786E-003	
  2.45760E+000	  1.84623E-003	  1.32709E-003	 -4.32028E-004	  4.10125E-003	  2.38863E-003	
  2.66240E+000	  1.09762E-003	  1.20019E-003	 -7.81411E-004	  3.26889E-003	  7.02789E-004	
  2.86720E+000	  1.61724E-004	  2.88745E-004	 -7.21497E-004	  1.76874E-003	 -6.89089E-004	
  3.07200E+000	  2.67761E-004	  7.63980E-004	 -5.73885E-004	  1.60040E-003	 -7.19453E-004	
  3.22560E+000	  3.47298E-004	  1.12045E-003	 -4.63164E-004	  1.47414E-003	 -7.42229E-004	
  3.63520E+000	 -5.47232E-004	 -5.91746E-004	 -1.40387E-003	  7.53997E-004	 -9.47309E-004	
  4.04480E+000	 -1.66864E-003	 -2.35905E-003	 -1.84926E-003	 -1.30314E-003	 -1.16310E-003	
  4.45440E+000	 -5.54655E-004	 -3.17453E-004	 -9.82686E-004	 -1.14702E-003	  2.28545E-004	
  4.86400E+000	  5.90236E-005	  2.10890E-003	 -8.24413E-004	  1.25808E-004	 -1.17420E-003	
  5.27360E+000	 -1.35921E-005	  2.39718E-003	 -3.46857E-004	 -3.23754E-004	 -1.78093E-003	
  5.68320E+000	  8.26869E-004	  2.36777E-003	  2.52152E-004	  8.24879E-004	 -1.37328E-004	
  6.09280E+000	  9.32056E-004	  1.79536E-003	 -1.01819E-004	  6.08821E-004	  1.42586E-003	
  6.50240E+000	  4.23152E-004	  1.71968E-003	 -6.47680E-004	  5.69077E-004	  5.15318E-005	
  7.32160E+000	 -5.39651E-004	 -8.45943E-004	 -1.03600E-003	 -1.68905E-004	 -1.07759E-004	
  8.14080E+000	 -8.07410E-004	 -1.85050E-003	 -1.08205E-003	  9.96296E-004	 -1.29338E-003	
  8.96000E+000	 -8.25015E-004	 -1.71831E-003	 -9.74896E-004	  9.77915E-004	 -1.58477E-003	
  9.77920E+000	 -3.93640E-004	  6.63599E-005	 -5.69032E-004	 -4.33051E-004	 -6.38839E-004	
  1.05984E+001	 -2.80755E-005	  1.70764E-003	 -7.16018E-004	 -9.17822E-004	 -1.86098E-004	
  1.14176E+001	 -2.82359E-004	  1.69480E-003	 -1.38980E-004	 -2.52947E-003	 -1.55781E-004	
  1.22368E+001	  5.88270E-005	  1.68962E-003	 -5.73580E-004	  4.20338E-004	 -1.30107E-003	
  1.30560E+001	 -5.55875E-004	  6.10189E-005	 -9.97951E-004	 -3.65064E-004	 -9.21505E-004	
  1.46944E+001	  4.69951E-004	  3.63125E-004	  2.23767E-004	  3.33641E-004	  9.59272E-004	
  1.63328E+001	  1.22342E-003	  2.05204E-003	 -1.17488E-004	  1.58600E-003	  1.37314E-003	
  1.79712E+001	  1.23236E-004	  1.15311E-003	  1.02335E-003	 -9.03729E-004	 -7.79785E-004	
  1.96096E+001	  2.71359E-004	 -4.85818E-004	  1.07846E-003	  2.31053E-005	  4.69691E-004	
  2.12480E+001	  1.47057E-004	  1.62791E-004	 -1.42287E-004	  8.04133E-004	 -2.36409E-004	
  2.28864E+001	  6.11817E-004	  9.49851E-004	  1.09263E-004	  1.76167E-003	 -3.73519E-004	
  2.45248E+001	  4.95650E-004	  3.52991E-004	  4.03180E-004	  6.75730E-004	  5.50701E-004	
  2.61632E+001	  7.00529E-005	  1.41444E-003	 -1.89570E-004	 -4.91292E-004	 -4.53367E-004	
  2.94400E+001	 -1.94616E-004	  5.03967E-005	 -1.27570E-004	 -8.30080E-004	  1.28790E-004	
  3.27168E+001	 -1.07964E-004	  7.58477E-005	  5.78672E-004	 -1.40901E-003	  3.22635E-004	
  3.59936E+001	  2.56943E-004	  1.47816E-003	  4.41780E-004	  3.74440E-004	 -1.26661E-003	
  3.92704E+001	  2.95662E-004	  7.94545E-004	 -3.26605E-004	  9.32002E-004	 -2.17292E-004	
  4.25472E+001	 -8.64834E-005	  1.58727E-004	  2.23327E-005	 -6.30090E-004	  1.03097E-004	
  4.58240E+001	  4.91139E-004	 -2.55080E-005	  1.45686E-004	  1.00363E-003	  8.40747E-004	
  4.91008E+001	  3.02113E-004	  3.49379E-004	  1.47269E-003	 -9.61401E-004	  3.47780E-004	
  5.23776E+001	 -1.24348E-004	  8.98800E-005	 -4.45283E-004	 -2.28169E-004	  8.61802E-005	
  5.89312E+001	 -2.50153E-004	 -5.23889E-004	  4.79029E-004	 -4.67510E-004	 -4.88241E-004	
  6.54848E+001	 -2.68050E-004	 -5.25329E-004	 -2.93218E-004	  1.25118E-004	 -3.78772E-004	
  7.20384E+001	  1.39628E-005	 -1.50764E-004	 -6.09010E-004	  5.54217E-004	  2.61408E-004	
  7.85920E+001	 -1.10055E-004	  2.60246E-004	 -3.00498E-004	 -8.42525E-004	  4.42558E-004	
  8.51456E+001	  2.39469E-004	 -2.16672E-004	 -5.22575E-005	 -1.95803E-004	  1.42261E-003	
  9.16992E+001	 -4.75036E-005	 -3.42369E-004	 -1.32785E-004	 -1.99757E-004	  4.84896E-004	
  9.82528E+001	  2.89361E-004	  1.09176E-003	  3.32161E-004	 -3.52064E-004	  8.55866E-005	
  1.04806E+002	 -1.52476E-004	  7.57681E-004	 -7.14632E-004	 -2.47923E-004	 -4.05029E-004	
  1.17914E+002	 -3.04432E-004	 -4.02404E-004	 -3.38834E-004	 -1.58091E-004	 -3.18399E-004	
  1.31021E+002	  2.81571E-004	  8.54806E-005	  1.54896E-005	  7.48013E-004	  2.77303E-004	
  1.44128E+002	  1.01828E-004	 -3.94490E-004	 -1.26951E-004	  7.23095E-004	  2.05660E-004	
  1.57235E+002	  2.24466E-004	  1.03545E-004	  4.29922E-004	  1.64569E-004	  1.99828E-004	
  1.70342E+002	 -6.26483E-006	 -3.04048E-004	  8.48657E-004	 -3.90473E-004	 -1.79195E-004	
  1.83450E+002	 -5.02619E-005	  3.97949E-004	  3.78652E-004	 -9.33413E-004	 -4.42351E-005	
  1.96557E+002	  5.64831E-005	 -1.45632E-004	 -2.37170E-006	 -1.50919E-005	  3.89028E-004	
  2.09664E+002	  1.15916E-004	 -1.05103E-004	  2.28632E-004	  9.36998E-005	  2.46437E-004	
  2.35878E+002	  1.07545E-004	 -3.75580E-004	  6.34288E-004	 -1.20288E-005	  1.83499E-004	
  2.62093E+002	  1.38919E-004	  1.86610E-005	  5.20510E-004	 -6.40186E-005	  8.05231E-005	
  2.88307E+002	  1.68481E-004	  2.43887E-005	  4.22120E-004	  2.61645E-004	 -3.42280E-005	
  3.14522E+002	 -2.18016E-004	 -3.32118E-004	 -7.32296E-005	 -6.25305E-005	 -4.04185E-004	
  3.40736E+002	 -1.56396E-004	 -2.61664E-004	 -1.32862E-004	 -7.71652E-005	 -1.53892E-004	
  3.66950E+002	 -2.85503E-004	 -2.58245E-004	 -4.47045E-004	 -2.62393E-004	 -1.74329E-004	
  3.93165E+002	  4.35095E-005	 -1.53262E-004	  2.82942E-004	 -1.52224E-004	  1.96582E-004	
  4.19379E+002	  4.01098E-005	 -5.66851E-005	  2.50567E-004	 -3.64374E-004	  3.30932E-004	
  4.71808E+002	  2.31772E-006	 -7.17253E-005	 -6.93887E-005	  7.05611E-005	  7.98238E-005	
  5.24237E+002	  1.32283E-004	 -4.15257E-005	  4.82528E-005	  2.49588E-004	  2.72816E-004	
  5.76666E+002	  9.93985E-005	  1.14664E-004	  1.27945E-004	  7.34879E-005	  8.14968E-005	
  6.29094E+002	 -1.46486E-005	 -3.00446E-004	  6.33605E-005	  3.06424E-005	  1.47848E-004	
  6.81523E+002	  7.27469E-005	 -6.70832E-005	  1.55386E-004	 -7.80132E-005	  2.80698E-004	
  7.33952E+002	  9.77124E-005	  6.69185E-005	  2.15423E-004	 -9.81768E-005	  2.06685E-004	
  7.86381E+002	  2.09372E-006	 -2.43092E-005	  4.51207E-005	 -1.30295E-004	  1.17858E-004	
  8.38810E+002	  1.64016E-004	  2.02108E-004	  4.01836E-004	  4.52033E-005	  6.91659E-006	
  9.43667E+002	  2.03430E-005	  2.61995E-004	 -1.41921E-004	  8.82936E-006	 -4.75309E-005	
  1.04852E+003	  6.67744E-005	  1.82889E-004	  3.40608E-004	 -2.02305E-004	 -5.40940E-005	
  1.15338E+003	  6.12496E-005	  2.44255E-004	 -7.55004E-005	 -1.49136E-004	  2.25379E-004	
  1.25824E+003	  1.78294E-004	  3.51324E-004	  1.24514E-004	  1.26865E-007	  2.37211E-004	
  1.36310E+003	  1.13994E-004	 -9.18458E-005	  1.89087E-004	  3.51087E-004	  7.64750E-006	
  1.46796E+003	 -5.12227E-005	  1.30877E-005	  3.91779E-005	 -2.77101E-004	  1.99446E-005	
  1.57281E+003	  8.46416E-006	 -1.72409E-005	  1.11056E-004	 -1.19046E-004	  5.90879E-005	
  1.67767E+003	  1.48025E-004	  1.38088E-004	  1.99073E-004	  8.82979E-005	  1.66643E-004	
  1.88739E+003	 -2.67051E-005	  5.32636E-005	  5.72848E-006	 -4.03157E-005	 -1.25497E-004	
  2.09710E+003	  7.27372E-005	  1.42626E-004	  2.14202E-005	 -4.22126E-005	  1.69116E-004	
  2.30682E+003	  9.17515E-005	  1.52382E-004	  1.08852E-004	 -7.88802E-005	  1.84652E-004	
  2.51653E+003	  4.85732E-006	 -1.63289E-005	  5.20560E-005	 -9.84151E-005	  8.21173E-005	
  2.72625E+003	 -7.39807E-005	 -6.52070E-006	 -1.62377E-004	 -1.34959E-004	  7.93463E-006	
  2.93596E+003	 -4.88439E-005	 -1.89198E-005	 -1.22452E-004	 -4.16432E-005	 -1.23603E-005	
  3.14568E+003	  1.85904E-005	  1.90731E-004	 -6.74402E-005	 -1.08613E-004	  5.96846E-005	
  3.35539E+003	  3.15551E-005	  1.37033E-004	  4.02256E-006	  9.97300E-006	 -2.48080E-005	
  3.77482E+003	 -2.14768E-005	 -9.62112E-005	 -4.91869E-005	  4.31434E-006	  5.51767E-005	
  4.19425E+003	  1.18660E-005	  4.93954E-005	  1.29789E-004	 -5.94024E-005	 -7.23177E-005	
  4.61368E+003	 -2.84772E-005	 -8.39179E-006	 -1.11506E-005	 -9.20659E-005	 -2.30050E-006	
  5.03311E+003	 -3.11972E-005	  7.83334E-005	 -6.50953E-005	 -7.26017E-005	 -6.54252E-005	
  5.45254E+003	 -1.58612E-005	 -1.22834E-004	 -3.58481E-005	  9.99568E-005	 -4.71948E-006	
  5.87197E+003	  3.88239E-005	  1.11280E-004	 -2.76525E-005	  1.62943E-004	 -9.12741E-005	
  6.29140E+003	 -4.33666E-005	 -1.82818E-005	  4.27968E-005	 -4.09996E-005	 -1.56982E-004	
  6.71083E+003	 -2.14160E-005	 -6.58687E-006	 -4.25197E-006	  1.12442E-005	 -8.60695E-005	
  7.54970E+003	 -6.14200E-005	 -5.15180E-005	 -1.08649E-004	 -1.09631E-005	 -7.45502E-005	
  8.38856E+003	 -6.62255E-005	 -5.36831E-005	 -1.17071E-004	 -4.26117E-005	 -5.15363E-005	
  9.22742E+003	 -5.95478E-005	 -7.64115E-005	 -1.70844E-004	  2.24039E-005	 -1.33397E-005	
  1.00663E+004	 -1.34893E-004	 -9.63049E-005	 -1.76743E-004	 -1.04277E-004	 -1.62246E-004	
  1.09051E+004	 -6.51144E-006	  8.01252E-005	 -6.54940E-005	 -1.05490E-004	  6.48128E-005	
  1.17440E+004	 -3.81936E-005	 -3.13645E-005	 -7.76487E-005	  3.17321E-005	 -7.54934E-005	
  1.25829E+004	 -8.23901E-006	 -1.19445E-006	 -2.17115E-005	  6.31034E-005	 -7.31535E-005	

"Count Rate"
       0.23438	     121.08436	     105.07010
       0.46875	     120.71303	     103.27319
       0.70313	     110.33278	      95.59471
       0.93750	     122.31786	     104.18658
       1.17188	     116.84605	     101.37811
       1.40625	     118.21187	      99.47023
       1.64063	     113.24369	      96.70871
       1.87500	     119.44537	     102.28724
       2.10938	     120.49962	     102.95734
       2.34375	     111.04557	      94.87339
       2.57813	     121.85690	     104.24634
       2.81250	     111.51507	      94.54900
       3.04688	     115.85582	      99.76473
       3.28125	     122.29652	     104.81828
       3.51563	     123.95258	     104.39999
       3.75000	     114.48573	      99.17146
       3.98438	     117.60152	     100.66959
       4.21875	     118.97587	     101.96285
       4.45313	     116.00094	      99.68791
       4.68750	     117.51615	     101.86896
       4.92188	     117.26006	     100.60557
       5.15625	     115.03206	      98.68488
       5.39063	     115.98814	     100.17875
       5.62500	     111.94189	      95.12948
       5.85938	     114.23391	      98.88976
       6.09375	     112.07847	      96.23921
       6.32813	     120.87095	     103.26466
       6.56250	     122.96236	     103.35429
       6.79688	     120.46547	     102.98722
       7.03125	     112.67602	      95.69715
       7.26563	     122.54408	     103.82806
       7.50000	     114.73328	      98.88122
       7.73438	     111.07971	      96.26055
       7.96875	     111.38702	      94.95448
       8.20313	     109.82913	      92.41491
       8.43750	     119.74415	     103.24758
       8.67188	     115.46741	     100.23424
       8.90625	     112.11262	      95.99165
       9.14063	     118.59600	     102.56467
       9.37500	     121.96787	     103.84086
       9.60938	     121.34045	     103.39270
       9.84375	     125.81779	     107.43041
      10.07813	     112.28761	      96.67030
      10.31250	     120.11548	     103.24332
      10.54688	     116.23996	     101.57445
      10.78125	     117.50334	     101.24153
      11.01563	     122.96236	     106.03471
      11.25000	     125.88608	     106.19690
      11.48438	     122.93249	     104.83108
      11.71875	     118.29723	     101.90310
      11.95313	     119.96609	     102.06529
      12.18750	     123.10748	     105.36034
      12.42188	     121.57093	     102.74820
      12.65625	     115.01499	      99.00926
      12.89063	     126.44521	     108.89013
      13.12500	     112.10408	      98.42026
      13.35938	     123.45321	     105.50972
      13.59375	     120.29901	     100.20009
      13.82813	     118.48503	     100.93422
      14.06250	     111.57909	      95.46667
      14.29688	     125.54462	     109.80353
      14.53125	     116.47898	      98.71903
      14.76563	     120.24780	     103.22197
      15.00000	     115.97960	      99.54279
      15.23438	     116.86311	     100.23424
      15.46875	     112.76992	      96.90932
      15.70313	     126.13790	     107.42188
      15.93750	     124.89159	     107.66516
      16.17188	     109.86328	      93.54598
      16.40625	     117.49481	     101.48482
      16.64063	     114.89975	      97.22516
      16.87500	     109.47060	      94.89046
      17.10938	     115.25828	      99.96534
      17.34375	     117.93443	     102.27016
      17.57813	     117.49054	     101.50189
      17.81250	     112.15103	      96.42701
      18.04688	     117.41371	     100.63972
      18.28125	     116.47898	      98.32635
      18.51563	     117.97711	     100.34521
      18.75000	     115.27534	     100.28973
      18.98438	     111.22910	      94.81790
      19.21875	     105.50546	      90.16130
      19.45313	     120.08987	     103.85367
      19.68750	     114.03330	      98.39038
      19.92188	     116.72227	      99.84156
      20.15625	     119.12526	     102.62016
      20.39063	     116.41922	     100.22144
      20.62500	     114.39183	      98.10868
      20.85938	     116.45337	      99.58547
      21.09375	     119.39416	     102.42809
      21.32813	     116.23569	     100.84885
      21.56250	     113.51685	      97.66051
      21.79688	     112.70589	      95.94470
      22.03125	     121.75874	     103.03417
      22.26563	     115.04060	      99.16719
      22.50000	     118.54478	     101.53603
      22.73438	     120.65754	     103.05551
      22.96875	     116.17593	      98.77025
      23.20313	     114.79305	      98.45440
      23.43750	     123.62393	     105.16827
      23.67188	     121.31911	     104.08842
      23.90625	     103.17075	      89.38449
      24.14063	     121.94653	     105.52679
      24.37500	     108.54441	      93.37099
      24.60938	     103.70855	      89.61924
      24.84375	     116.07777	      98.56110
      25.07813	     117.58871	     100.68667
      25.31250	     115.99667	     100.25985
      25.54688	     108.26271	      95.60751
      25.78125	     120.76424	     104.07988
      26.01563	     110.36266	      94.77095
      26.25000	     112.82114	      96.63615
      26.48438	     119.53500	     103.94756
      26.71875	     116.26130	      98.81293
      26.95313	     116.92287	     100.83179
      27.18750	     117.25579	     101.15617
      27.42188	     115.13450	      98.93671
      27.65625	     122.76603	     105.62923
      27.89063	     114.31500	      97.88246
      28.12500	     120.68742	     105.19814
      28.35938	     118.25455	     102.34699
      28.59375	     116.38934	      98.80439
      28.82813	     117.87041	      99.73486
      29.06250	     114.68207	      98.06173
      29.29688	     118.73685	     102.72686
      29.53125	     120.70876	     104.88657
      29.76563	     114.28940	      98.20685
      30.00000	     117.78078	     101.86469
      30.23438	     120.97765	     103.25612
      30.46875	     116.36800	     101.21592
      30.70313	     117.58871	     101.55737
      30.93750	     115.58693	      99.20560
      31.17188	     119.49659	     101.99700
      31.40625	     120.69168	     102.96161
      31.64063	     116.03935	     100.59703
      31.87500	     125.81779	     108.34380
      32.10938	     118.50210	     101.88176
      32.34375	     114.27232	      96.21360
      32.57813	     113.35466	      97.06724
      32.81250	     113.83697	      97.03310
      33.04688	     115.11742	      99.72205
      33.28125	     117.72529	     101.50616
      33.51563	     114.37049	      96.76420
      33.75000	     119.76122	     102.53906
      33.98438	     124.42209	     105.19388
      34.21875	     115.16438	      98.57818
      34.45313	     114.08879	      99.19707
      34.68750	     117.98992	     102.03968
      34.92188	     108.61270	      93.01672
      35.15625	     126.09949	     107.52858
      35.39063	     110.43948	      94.98009
      35.62500	     117.22591	     101.00251
      35.85938	     114.55829	      99.09890
      36.09375	     113.49978	      97.22089
      36.32813	     120.65754	     104.42987
      36.56250	     111.83945	      97.67332
      36.79688	     113.63636	      98.08307
      37.03125	     117.90456	      99.82449
      37.26563	     111.25044	      95.95750
      37.50000	     117.14481	      99.97388
      37.73438	     111.92908	      96.27335
      37.96875	     109.89742	      96.03007
      38.20313	     115.78326	      98.46721
      38.43750	     113.28210	      97.05870
      38.67188	     112.80406	      97.95502
      38.90625	     126.92325	     108.37794
      39.14063	     116.40642	     100.25558
      39.37500	     122.00629	     105.76154
      39.60938	     112.79980	      96.32884
      39.84375	     109.92730	      93.43501
      40.07813	     117.67407	     100.91288
      40.31250	     111.51934	      95.20204
      40.54688	     113.11991	      97.53674
      40.78125	     111.68153	      98.63367
      41.01563	     116.77775	     101.05800
      41.25000	     110.84496	      95.14228
      41.48438	     111.31873	      95.03985
      41.71875	     116.98689	     100.81471
      41.95313	     107.52858	      92.19723
      42.18750	     108.76208	      93.20879
      42.42188	     111.15228	      95.44959
      42.65625	     119.17648	     100.22997
      42.89063	     116.60275	      98.18550
      43.12500	     110.11937	      91.98382
      43.35938	     119.29598	     101.26714
      43.59375	     110.34559	      95.88068
      43.82813	     121.31911	     103.90488
      44.06250	     113.14979	      97.86112
      44.29688	     119.46245	     101.31409
      44.53125	     120.29901	     102.46650
      44.76563	     120.81120	     103.95610
      45.00000	     122.06178	     105.67191
      45.23438	     115.72778	      99.27816
      45.46875	     115.88143	     100.77203
      45.70313	     107.52004	      91.80882
      45.93750	     130.82864	     112.10408
      46.17188	     119.69720	     101.25861
      46.40625	     112.48395	      96.64468
      46.64063	     108.05783	      92.54295
      46.87500	     117.15335	     101.71103
      47.10938	     115.26682	      98.67208
      47.34375	     121.12704	     102.70979
      47.57813	     122.29652	     105.16400
      47.81250	     118.44662	      99.81168
      48.04688	     117.33262	     100.28545
      48.28125	     119.04416	     102.31284
      48.51563	     111.50653	      96.96053
      48.75000	     120.37157	     102.32565
      48.98438	     118.68137	     101.40372
      49.21875	     118.76673	     101.65128
      49.45313	     121.57520	     105.67191
      49.68750	     119.26611	     101.22019
      49.92188	     120.54230	     104.87803
      50.15625	     111.53641	      95.73129
      50.39063	     113.46136	      98.16416
      50.62500	     115.69363	      97.86966
      50.85938	     109.47060	      95.38130
      51.09375	     118.27162	     102.19761
      51.32813	     116.57288	     100.86593
      51.56250	     122.74895	     105.35180
      51.79688	     118.71552	      99.67084
      52.03125	     118.06248	     101.89883
      52.26563	     106.99078	      91.09177
      52.50000	     118.49357	     101.14336
      52.73438	     120.73437	     101.40799
      52.96875	     123.76051	     105.06583
      53.20313	     112.51382	      95.59471
      53.43750	     117.76797	     100.26411
      53.67188	     108.61697	      92.60698
      53.90625	     107.94260	      92.63258
      54.14063	     110.64863	      96.08556
      54.37500	     113.20100	      98.02332
      54.60938	     117.44359	     100.25558
      54.84375	     110.53339	      95.55203
      55.07813	     117.34542	     100.70801
      55.31250	     115.71070	      98.64647
      55.54688	     121.56239	     104.32743
      55.78125	     118.68563	     102.76955
      56.01563	     108.34807	      92.52588
      56.25000	     113.92233	      99.19707
      56.48438	     115.39486	      99.29097
      56.71875	     117.05946	     101.85188
      56.95313	     117.94297	     102.36407
      57.18750	     121.59227	     104.95059
      57.42188	     116.01801	     100.46899
      57.65625	     107.25542	      93.34538
      57.89063	     120.82400	     104.70303
      58.12500	     117.42225	     101.04946
      58.35938	     113.85404	      97.85686
      58.59375	     119.73134	     103.27319
      58.82813	     117.79358	     101.91164
      59.06250	     114.54976	      99.64950
      59.29688	     127.08971	     108.48892
      59.53125	     123.41479	     106.04325
      59.76563	     116.53873	      99.82876
